Pixel index,Intensity
1.00000000,0.00015412
2.00000000,0.00020567
3.00000000,0.00037513
4.00000000,0.00126128
5.00000000,0.00149315
6.00000000,0.00148944
7.00000000,0.00153545
8.00000000,0.00149473
9.00000000,0.00153016
10.00000000,0.00147357
11.00000000,0.00155475
12.00000000,0.00151323
13.00000000,0.00150716
14.00000000,0.00148415
15.00000000,0.00149314
16.00000000,0.00148231
17.00000000,0.00153811
18.00000000,0.00153704
19.00000000,0.00155661
20.00000000,0.00150002
21.00000000,0.00158622
22.00000000,0.00155818
23.00000000,0.00163590
24.00000000,0.00162162
25.00000000,0.00158251
26.00000000,0.00150821
27.00000000,0.00150373
28.00000000,0.00147887
29.00000000,0.00160419
30.00000000,0.00156875
31.00000000,0.00153147
32.00000000,0.00147886
33.00000000,0.00148257
34.00000000,0.00151324
35.00000000,0.00152091
36.00000000,0.00142073
37.00000000,0.00147201
38.00000000,0.00146804
39.00000000,0.00154868
40.00000000,0.00149473
41.00000000,0.00148812
42.00000000,0.00150107
43.00000000,0.00155397
44.00000000,0.00157934
45.00000000,0.00155395
46.00000000,0.00145269
47.00000000,0.00146142
48.00000000,0.00148943
49.00000000,0.00145085
50.00000000,0.00140484
51.00000000,0.00150902
52.00000000,0.00153438
53.00000000,0.00153545
54.00000000,0.00147622
55.00000000,0.00153386
56.00000000,0.00159598
57.00000000,0.00163856
58.00000000,0.00152910
59.00000000,0.00151694
60.00000000,0.00140749
61.00000000,0.00144266
62.00000000,0.00148415
63.00000000,0.00153016
64.00000000,0.00155817
65.00000000,0.00155395
66.00000000,0.00140246
67.00000000,0.00142732
68.00000000,0.00148151
69.00000000,0.00146354
70.00000000,0.00141541
71.00000000,0.00146143
72.00000000,0.00148416
73.00000000,0.00150373
74.00000000,0.00151350
75.00000000,0.00150637
76.00000000,0.00151667
77.00000000,0.00153280
78.00000000,0.00151060
79.00000000,0.00153810
80.00000000,0.00146565
81.00000000,0.00146142
82.00000000,0.00144450
83.00000000,0.00150902
84.00000000,0.00155289
85.00000000,0.00156717
86.00000000,0.00149209
87.00000000,0.00145614
88.00000000,0.00147357
89.00000000,0.00152487
90.00000000,0.00150266
91.00000000,0.00155395
92.00000000,0.00150002
93.00000000,0.00157776
94.00000000,0.00153967
95.00000000,0.00149844
96.00000000,0.00146592
97.00000000,0.00152487
98.00000000,0.00154601
99.00000000,0.00158303
100.00000000,0.00156611
101.00000000,0.00162269
102.00000000,0.00165335
103.00000000,0.00160682
104.00000000,0.00151799
105.00000000,0.00154603
106.00000000,0.00162692
107.00000000,0.00173902
108.00000000,0.00162693
109.00000000,0.00153546
110.00000000,0.00147358
111.00000000,0.00150663
112.00000000,0.00149658
113.00000000,0.00153809
114.00000000,0.00150582
115.00000000,0.00149129
116.00000000,0.00148151
117.00000000,0.00155925
118.00000000,0.00153704
119.00000000,0.00161211
120.00000000,0.00155817
121.00000000,0.00151324
122.00000000,0.00157139
123.00000000,0.00165493
124.00000000,0.00154389
125.00000000,0.00147994
126.00000000,0.00145509
127.00000000,0.00153994
128.00000000,0.00160312
129.00000000,0.00163327
130.00000000,0.00160048
131.00000000,0.00168614
132.00000000,0.00160207
133.00000000,0.00159626
134.00000000,0.00159255
135.00000000,0.00163591
136.00000000,0.00152910
137.00000000,0.00151695
138.00000000,0.00152646
139.00000000,0.00155396
140.00000000,0.00157935
141.00000000,0.00156453
142.00000000,0.00151060
143.00000000,0.00162798
144.00000000,0.00165336
145.00000000,0.00163856
146.00000000,0.00148257
147.00000000,0.00153042
148.00000000,0.00159519
149.00000000,0.00159097
150.00000000,0.00156346
151.00000000,0.00161528
152.00000000,0.00153570
153.00000000,0.00158304
154.00000000,0.00164675
155.00000000,0.00169725
156.00000000,0.00165864
157.00000000,0.00164385
158.00000000,0.00152909
159.00000000,0.00145614
160.00000000,0.00148943
161.00000000,0.00154866
162.00000000,0.00157299
163.00000000,0.00158833
164.00000000,0.00149420
165.00000000,0.00162268
166.00000000,0.00165865
167.00000000,0.00158834
168.00000000,0.00157404
169.00000000,0.00159626
170.00000000,0.00153570
171.00000000,0.00157247
172.00000000,0.00153969
173.00000000,0.00157512
174.00000000,0.00148946
175.00000000,0.00154339
176.00000000,0.00157139
177.00000000,0.00161740
178.00000000,0.00156374
179.00000000,0.00162270
180.00000000,0.00158992
181.00000000,0.00155661
182.00000000,0.00155553
183.00000000,0.00160154
184.00000000,0.00149208
185.00000000,0.00155130
186.00000000,0.00157774
187.00000000,0.00156188
188.00000000,0.00159519
189.00000000,0.00159625
190.00000000,0.00151851
191.00000000,0.00151165
192.00000000,0.00150002
193.00000000,0.00156717
194.00000000,0.00156348
195.00000000,0.00153280
196.00000000,0.00144714
197.00000000,0.00149420
198.00000000,0.00150529
199.00000000,0.00156452
200.00000000,0.00157668
201.00000000,0.00158304
202.00000000,0.00157669
203.00000000,0.00161212
204.00000000,0.00155554
205.00000000,0.00158039
206.00000000,0.00159254
207.00000000,0.00149314
208.00000000,0.00145771
209.00000000,0.00155607
210.00000000,0.00150715
211.00000000,0.00154603
212.00000000,0.00155819
213.00000000,0.00156982
214.00000000,0.00161634
215.00000000,0.00163062
216.00000000,0.00156637
217.00000000,0.00157775
218.00000000,0.00153704
219.00000000,0.00160261
220.00000000,0.00151853
221.00000000,0.00151536
222.00000000,0.00150319
223.00000000,0.00150108
224.00000000,0.00151588
225.00000000,0.00149976
226.00000000,0.00142493
227.00000000,0.00151615
228.00000000,0.00150796
229.00000000,0.00153783
230.00000000,0.00150265
231.00000000,0.00153015
232.00000000,0.00156082
233.00000000,0.00163882
234.00000000,0.00154762
235.00000000,0.00154603
236.00000000,0.00157934
237.00000000,0.00162587
238.00000000,0.00156610
239.00000000,0.00147040
240.00000000,0.00141461
241.00000000,0.00155659
242.00000000,0.00146643
243.00000000,0.00148838
244.00000000,0.00161370
245.00000000,0.00159361
246.00000000,0.00150293
247.00000000,0.00152223
248.00000000,0.00152910
249.00000000,0.00160154
250.00000000,0.00150398
251.00000000,0.00149050
252.00000000,0.00151851
253.00000000,0.00151746
254.00000000,0.00148574
255.00000000,0.00157511
256.00000000,0.00151853
257.00000000,0.00149844
258.00000000,0.00146038
259.00000000,0.00152224
260.00000000,0.00155025
261.00000000,0.00149844
262.00000000,0.00143391
263.00000000,0.00149314
264.00000000,0.00148150
265.00000000,0.00160683
266.00000000,0.00161106
267.00000000,0.00151430
268.00000000,0.00136043
269.00000000,0.00140591
270.00000000,0.00143445
271.00000000,0.00152618
272.00000000,0.00153438
273.00000000,0.00154867
274.00000000,0.00149764
275.00000000,0.00146144
276.00000000,0.00147623
277.00000000,0.00154997
278.00000000,0.00153965
279.00000000,0.00153543
280.00000000,0.00149207
281.00000000,0.00160973
282.00000000,0.00153703
283.00000000,0.00148786
284.00000000,0.00152645
285.00000000,0.00156189
286.00000000,0.00155026
287.00000000,0.00156190
288.00000000,0.00144980
289.00000000,0.00149845
290.00000000,0.00150002
291.00000000,0.00148364
292.00000000,0.00147886
293.00000000,0.00155659
294.00000000,0.00156082
295.00000000,0.00161212
296.00000000,0.00152116
297.00000000,0.00154867
298.00000000,0.00157932
299.00000000,0.00151694
300.00000000,0.00141013
301.00000000,0.00156452
302.00000000,0.00157933
303.00000000,0.00159362
304.00000000,0.00159519
305.00000000,0.00160682
306.00000000,0.00148679
307.00000000,0.00148258
308.00000000,0.00155025
309.00000000,0.00159625
310.00000000,0.00151323
311.00000000,0.00155924
312.00000000,0.00151852
313.00000000,0.00150637
314.00000000,0.00157246
315.00000000,0.00160419
316.00000000,0.00152381
317.00000000,0.00152223
318.00000000,0.00148071
319.00000000,0.00151694
320.00000000,0.00150002
321.00000000,0.00152910
322.00000000,0.00148679
323.00000000,0.00158039
324.00000000,0.00149739
325.00000000,0.00150902
326.00000000,0.00158197
327.00000000,0.00160683
328.00000000,0.00162692
329.00000000,0.00163326
330.00000000,0.00148176
331.00000000,0.00154073
332.00000000,0.00156214
333.00000000,0.00162850
334.00000000,0.00159519
335.00000000,0.00159388
336.00000000,0.00152381
337.00000000,0.00153810
338.00000000,0.00154179
339.00000000,0.00167556
340.00000000,0.00166392
341.00000000,0.00162798
342.00000000,0.00157405
343.00000000,0.00158303
344.00000000,0.00162162
345.00000000,0.00160153
346.00000000,0.00161105
347.00000000,0.00162797
348.00000000,0.00163220
349.00000000,0.00169936
350.00000000,0.00161898
351.00000000,0.00161742
352.00000000,0.00161372
353.00000000,0.00160949
354.00000000,0.00162957
355.00000000,0.00170201
356.00000000,0.00170093
357.00000000,0.00169935
358.00000000,0.00162162
359.00000000,0.00164516
360.00000000,0.00164805
361.00000000,0.00169750
362.00000000,0.00165600
363.00000000,0.00164649
364.00000000,0.00161106
365.00000000,0.00176282
366.00000000,0.00167451
367.00000000,0.00168349
368.00000000,0.00168771
369.00000000,0.00163855
370.00000000,0.00161900
371.00000000,0.00170387
372.00000000,0.00170359
373.00000000,0.00169672
374.00000000,0.00155554
375.00000000,0.00158303
376.00000000,0.00159096
377.00000000,0.00168086
378.00000000,0.00172739
379.00000000,0.00173902
380.00000000,0.00164278
381.00000000,0.00159362
382.00000000,0.00158727
383.00000000,0.00169408
384.00000000,0.00166130
385.00000000,0.00166500
386.00000000,0.00170280
387.00000000,0.00167478
388.00000000,0.00162163
389.00000000,0.00173110
390.00000000,0.00167979
391.00000000,0.00167028
392.00000000,0.00161634
393.00000000,0.00169937
394.00000000,0.00177761
395.00000000,0.00179454
396.00000000,0.00168772
397.00000000,0.00167557
398.00000000,0.00173425
399.00000000,0.00177074
400.00000000,0.00175118
401.00000000,0.00179797
402.00000000,0.00176174
403.00000000,0.00174166
404.00000000,0.00168507
405.00000000,0.00174614
406.00000000,0.00171151
407.00000000,0.00179718
408.00000000,0.00181727
409.00000000,0.00184741
410.00000000,0.00176174
411.00000000,0.00173636
412.00000000,0.00178368
413.00000000,0.00178924
414.00000000,0.00170093
415.00000000,0.00173108
416.00000000,0.00172473
417.00000000,0.00178396
418.00000000,0.00171680
419.00000000,0.00169671
420.00000000,0.00165309
421.00000000,0.00174694
422.00000000,0.00179610
423.00000000,0.00179190
424.00000000,0.00167186
425.00000000,0.00174693
426.00000000,0.00173530
427.00000000,0.00168350
428.00000000,0.00161635
429.00000000,0.00168614
430.00000000,0.00169035
431.00000000,0.00173901
432.00000000,0.00175645
433.00000000,0.00183419
434.00000000,0.00174853
435.00000000,0.00164386
436.00000000,0.00160314
437.00000000,0.00167003
438.00000000,0.00164701
439.00000000,0.00172052
440.00000000,0.00178819
441.00000000,0.00176016
442.00000000,0.00161632
443.00000000,0.00158911
444.00000000,0.00163220
445.00000000,0.00176809
446.00000000,0.00162692
447.00000000,0.00167556
448.00000000,0.00178288
449.00000000,0.00175223
450.00000000,0.00163325
451.00000000,0.00168085
452.00000000,0.00171445
453.00000000,0.00168088
454.00000000,0.00168799
455.00000000,0.00173373
456.00000000,0.00162163
457.00000000,0.00163326
458.00000000,0.00162955
459.00000000,0.00167055
460.00000000,0.00163512
461.00000000,0.00161212
462.00000000,0.00157931
463.00000000,0.00166234
464.00000000,0.00168507
465.00000000,0.00172050
466.00000000,0.00160312
467.00000000,0.00152647
468.00000000,0.00155290
469.00000000,0.00162746
470.00000000,0.00158223
471.00000000,0.00154337
472.00000000,0.00151059
473.00000000,0.00160683
474.00000000,0.00157933
475.00000000,0.00155448
476.00000000,0.00159255
477.00000000,0.00162269
478.00000000,0.00159782
479.00000000,0.00167292
480.00000000,0.00166657
481.00000000,0.00155660
482.00000000,0.00142601
483.00000000,0.00149580
484.00000000,0.00153967
485.00000000,0.00167292
486.00000000,0.00160575
487.00000000,0.00159625
488.00000000,0.00158197
489.00000000,0.00159546
490.00000000,0.00163220
491.00000000,0.00165970
492.00000000,0.00151112
493.00000000,0.00149447
494.00000000,0.00152646
495.00000000,0.00158040
496.00000000,0.00153413
497.00000000,0.00153572
498.00000000,0.00150134
499.00000000,0.00152250
500.00000000,0.00153122
501.00000000,0.00160075
502.00000000,0.00147886
503.00000000,0.00143155
504.00000000,0.00144450
505.00000000,0.00150637
506.00000000,0.00150794
507.00000000,0.00147384
508.00000000,0.00144925
509.00000000,0.00152488
510.00000000,0.00147887
511.00000000,0.00147729
512.00000000,0.00152910
513.00000000,0.00157510
514.00000000,0.00148176
515.00000000,0.00150160
516.00000000,0.00150028
517.00000000,0.00153545
518.00000000,0.00150266
519.00000000,0.00147466
520.00000000,0.00134668
521.00000000,0.00144821
522.00000000,0.00140750
523.00000000,0.00150637
524.00000000,0.00162956
525.00000000,0.00160789
526.00000000,0.00150266
527.00000000,0.00151958
528.00000000,0.00149605
529.00000000,0.00149976
530.00000000,0.00145243
531.00000000,0.00148257
532.00000000,0.00144608
533.00000000,0.00149315
534.00000000,0.00152380
535.00000000,0.00154601
536.00000000,0.00150952
537.00000000,0.00154073
538.00000000,0.00145005
539.00000000,0.00142440
540.00000000,0.00144979
541.00000000,0.00147994
542.00000000,0.00145242
543.00000000,0.00157246
544.00000000,0.00158991
545.00000000,0.00159097
546.00000000,0.00156082
547.00000000,0.00161740
548.00000000,0.00155553
549.00000000,0.00153810
550.00000000,0.00147359
551.00000000,0.00154630
552.00000000,0.00149473
553.00000000,0.00149316
554.00000000,0.00156611
555.00000000,0.00164120
556.00000000,0.00170227
557.00000000,0.00168614
558.00000000,0.00155288
559.00000000,0.00158646
560.00000000,0.00158460
561.00000000,0.00160154
562.00000000,0.00158990
563.00000000,0.00168086
564.00000000,0.00169037
565.00000000,0.00171258
566.00000000,0.00165071
567.00000000,0.00166235
568.00000000,0.00160577
569.00000000,0.00163856
570.00000000,0.00169036
571.00000000,0.00177602
572.00000000,0.00173795
573.00000000,0.00175224
574.00000000,0.00174852
575.00000000,0.00181568
576.00000000,0.00177231
577.00000000,0.00179717
578.00000000,0.00185956
579.00000000,0.00185799
580.00000000,0.00184370
581.00000000,0.00183684
582.00000000,0.00171944
583.00000000,0.00180509
584.00000000,0.00184633
585.00000000,0.00181568
586.00000000,0.00176438
587.00000000,0.00177338
588.00000000,0.00185957
589.00000000,0.00201662
590.00000000,0.00190212
591.00000000,0.00189763
592.00000000,0.00188334
593.00000000,0.00190820
594.00000000,0.00194945
595.00000000,0.00196373
596.00000000,0.00189657
597.00000000,0.00191350
598.00000000,0.00189129
599.00000000,0.00198224
600.00000000,0.00195208
601.00000000,0.00196637
602.00000000,0.00193623
603.00000000,0.00199282
604.00000000,0.00203669
605.00000000,0.00205361
606.00000000,0.00198380
607.00000000,0.00213821
608.00000000,0.00214772
609.00000000,0.00211443
610.00000000,0.00211336
611.00000000,0.00207478
612.00000000,0.00204991
613.00000000,0.00209592
614.00000000,0.00208692
615.00000000,0.00214087
616.00000000,0.00208428
617.00000000,0.00209592
618.00000000,0.00216094
619.00000000,0.00220959
620.00000000,0.00210806
621.00000000,0.00217787
622.00000000,0.00221910
623.00000000,0.00217257
624.00000000,0.00215565
625.00000000,0.00230477
626.00000000,0.00229841
627.00000000,0.00226246
628.00000000,0.00216094
629.00000000,0.00221225
630.00000000,0.00220060
631.00000000,0.00225454
632.00000000,0.00222439
633.00000000,0.00230741
634.00000000,0.00233541
635.00000000,0.00225717
636.00000000,0.00223231
637.00000000,0.00222281
638.00000000,0.00216094
639.00000000,0.00225455
640.00000000,0.00228255
641.00000000,0.00228626
642.00000000,0.00225611
643.00000000,0.00234706
644.00000000,0.00233808
645.00000000,0.00232593
646.00000000,0.00232221
647.00000000,0.00234971
648.00000000,0.00237243
649.00000000,0.00235500
650.00000000,0.00228255
651.00000000,0.00234972
652.00000000,0.00238039
653.00000000,0.00247927
654.00000000,0.00239095
655.00000000,0.00237615
656.00000000,0.00232749
657.00000000,0.00234178
658.00000000,0.00233542
659.00000000,0.00245281
660.00000000,0.00238829
661.00000000,0.00236820
662.00000000,0.00238301
663.00000000,0.00237086
664.00000000,0.00231163
665.00000000,0.00236030
666.00000000,0.00236187
667.00000000,0.00233122
668.00000000,0.00223762
669.00000000,0.00238673
670.00000000,0.00239888
671.00000000,0.00242903
672.00000000,0.00244118
673.00000000,0.00242638
674.00000000,0.00237245
675.00000000,0.00235502
676.00000000,0.00230370
677.00000000,0.00237350
678.00000000,0.00235657
679.00000000,0.00240788
680.00000000,0.00230370
681.00000000,0.00233385
682.00000000,0.00231428
683.00000000,0.00234972
684.00000000,0.00227197
685.00000000,0.00224925
686.00000000,0.00225348
687.00000000,0.00238408
688.00000000,0.00232484
689.00000000,0.00231534
690.00000000,0.00226670
691.00000000,0.00227570
692.00000000,0.00221646
693.00000000,0.00227305
694.00000000,0.00224818
695.00000000,0.00214087
696.00000000,0.00205255
697.00000000,0.00224396
698.00000000,0.00229314
699.00000000,0.00227042
700.00000000,0.00214508
701.00000000,0.00219901
702.00000000,0.00209749
703.00000000,0.00204833
704.00000000,0.00204727
705.00000000,0.00214086
706.00000000,0.00215829
707.00000000,0.00221753
708.00000000,0.00204991
709.00000000,0.00202982
710.00000000,0.00202877
711.00000000,0.00207213
712.00000000,0.00209220
713.00000000,0.00207212
714.00000000,0.00192830
715.00000000,0.00196638
716.00000000,0.00194680
717.00000000,0.00192672
718.00000000,0.00184634
719.00000000,0.00192143
720.00000000,0.00186749
721.00000000,0.00189764
722.00000000,0.00187542
723.00000000,0.00184741
724.00000000,0.00177152
725.00000000,0.00181488
726.00000000,0.00182255
727.00000000,0.00184476
728.00000000,0.00187542
729.00000000,0.00197166
730.00000000,0.00188863
731.00000000,0.00178659
732.00000000,0.00160840
733.00000000,0.00168085
734.00000000,0.00169352
735.00000000,0.00167821
736.00000000,0.00163749
737.00000000,0.00167820
738.00000000,0.00164832
739.00000000,0.00161264
740.00000000,0.00162426
741.00000000,0.00168086
742.00000000,0.00153914
743.00000000,0.00152222
744.00000000,0.00157429
745.00000000,0.00163219
746.00000000,0.00160576
747.00000000,0.00160683
748.00000000,0.00160946
749.00000000,0.00160444
750.00000000,0.00160313
751.00000000,0.00161741
752.00000000,0.00151325
753.00000000,0.00160948
754.00000000,0.00161898
755.00000000,0.00152222
756.00000000,0.00147885
757.00000000,0.00154338
758.00000000,0.00152011
759.00000000,0.00154602
760.00000000,0.00149235
761.00000000,0.00147940
762.00000000,0.00142626
763.00000000,0.00152568
764.00000000,0.00144451
765.00000000,0.00139798
766.00000000,0.00145772
767.00000000,0.00153280
768.00000000,0.00150266
769.00000000,0.00148786
770.00000000,0.00144529
771.00000000,0.00137735
772.00000000,0.00135461
773.00000000,0.00150374
774.00000000,0.00150796
775.00000000,0.00147993
776.00000000,0.00144503
777.00000000,0.00140617
778.00000000,0.00144899
779.00000000,0.00153545
780.00000000,0.00154627
781.00000000,0.00154152
782.00000000,0.00145243
783.00000000,0.00153016
784.00000000,0.00156082
785.00000000,0.00163856
786.00000000,0.00161372
787.00000000,0.00160949
788.00000000,0.00152832
789.00000000,0.00159309
790.00000000,0.00166128
791.00000000,0.00170464
792.00000000,0.00170358
793.00000000,0.00174166
794.00000000,0.00169037
795.00000000,0.00171258
796.00000000,0.00171944
797.00000000,0.00173901
798.00000000,0.00170887
799.00000000,0.00177338
800.00000000,0.00179082
801.00000000,0.00180511
802.00000000,0.00179346
803.00000000,0.00183682
