Pixel index,Intensity
1.00000000,0.00018796
2.00000000,0.00018743
3.00000000,0.00039547
4.00000000,0.00132708
5.00000000,0.00161548
6.00000000,0.00161099
7.00000000,0.00161021
8.00000000,0.00162424
9.00000000,0.00172123
10.00000000,0.00166412
11.00000000,0.00166570
12.00000000,0.00168290
13.00000000,0.00165778
14.00000000,0.00163214
15.00000000,0.00173179
16.00000000,0.00155018
17.00000000,0.00158904
18.00000000,0.00163980
19.00000000,0.00172123
20.00000000,0.00168239
21.00000000,0.00163664
22.00000000,0.00152957
23.00000000,0.00155468
24.00000000,0.00161919
25.00000000,0.00167495
26.00000000,0.00170615
27.00000000,0.00168686
28.00000000,0.00157663
29.00000000,0.00168421
30.00000000,0.00170722
31.00000000,0.00169213
32.00000000,0.00162421
33.00000000,0.00169478
34.00000000,0.00162684
35.00000000,0.00164721
36.00000000,0.00163743
37.00000000,0.00173973
38.00000000,0.00169296
39.00000000,0.00161971
40.00000000,0.00159513
41.00000000,0.00174502
42.00000000,0.00172467
43.00000000,0.00171593
44.00000000,0.00161892
45.00000000,0.00172121
46.00000000,0.00169821
47.00000000,0.00169477
48.00000000,0.00169294
49.00000000,0.00164191
50.00000000,0.00156076
51.00000000,0.00163134
52.00000000,0.00161629
53.00000000,0.00164693
54.00000000,0.00160570
55.00000000,0.00165514
56.00000000,0.00169294
57.00000000,0.00173443
58.00000000,0.00172466
59.00000000,0.00177409
60.00000000,0.00165595
61.00000000,0.00165250
62.00000000,0.00168502
63.00000000,0.00169478
64.00000000,0.00161628
65.00000000,0.00163927
66.00000000,0.00164008
67.00000000,0.00172387
68.00000000,0.00170774
69.00000000,0.00179525
70.00000000,0.00175903
71.00000000,0.00177461
72.00000000,0.00169029
73.00000000,0.00171063
74.00000000,0.00167708
75.00000000,0.00169744
76.00000000,0.00153697
77.00000000,0.00164772
78.00000000,0.00166386
79.00000000,0.00171065
80.00000000,0.00164800
81.00000000,0.00166307
82.00000000,0.00166388
83.00000000,0.00170006
84.00000000,0.00158322
85.00000000,0.00168422
86.00000000,0.00167180
87.00000000,0.00173444
88.00000000,0.00169295
89.00000000,0.00165249
90.00000000,0.00158191
91.00000000,0.00156526
92.00000000,0.00157399
93.00000000,0.00163135
94.00000000,0.00165593
95.00000000,0.00169743
96.00000000,0.00159778
97.00000000,0.00168686
98.00000000,0.00171144
99.00000000,0.00171355
100.00000000,0.00163742
101.00000000,0.00167891
102.00000000,0.00164799
103.00000000,0.00172651
104.00000000,0.00166651
105.00000000,0.00163926
106.00000000,0.00164006
107.00000000,0.00165513
108.00000000,0.00166386
109.00000000,0.00166306
110.00000000,0.00158878
111.00000000,0.00165777
112.00000000,0.00160042
113.00000000,0.00164456
114.00000000,0.00164008
115.00000000,0.00165779
116.00000000,0.00164800
117.00000000,0.00172651
118.00000000,0.00167710
119.00000000,0.00170326
120.00000000,0.00169824
121.00000000,0.00171593
122.00000000,0.00164535
123.00000000,0.00172148
124.00000000,0.00166651
125.00000000,0.00167099
126.00000000,0.00171673
127.00000000,0.00179259
128.00000000,0.00174845
129.00000000,0.00170008
130.00000000,0.00162686
131.00000000,0.00169744
132.00000000,0.00163215
133.00000000,0.00167231
134.00000000,0.00164801
135.00000000,0.00170538
136.00000000,0.00164007
137.00000000,0.00167498
138.00000000,0.00163745
139.00000000,0.00173708
140.00000000,0.00174052
141.00000000,0.00171858
142.00000000,0.00164801
143.00000000,0.00171330
144.00000000,0.00166387
145.00000000,0.00171066
146.00000000,0.00167974
147.00000000,0.00168158
148.00000000,0.00164536
149.00000000,0.00170272
150.00000000,0.00166122
151.00000000,0.00166042
152.00000000,0.00164271
153.00000000,0.00176088
154.00000000,0.00177410
155.00000000,0.00181111
156.00000000,0.00177912
157.00000000,0.00175294
158.00000000,0.00166386
159.00000000,0.00167365
160.00000000,0.00163215
161.00000000,0.00171065
162.00000000,0.00165330
163.00000000,0.00174237
164.00000000,0.00171937
165.00000000,0.00169743
166.00000000,0.00164007
167.00000000,0.00169742
168.00000000,0.00165856
169.00000000,0.00171065
170.00000000,0.00162950
171.00000000,0.00164985
172.00000000,0.00159963
173.00000000,0.00168792
174.00000000,0.00162712
175.00000000,0.00159962
176.00000000,0.00159512
177.00000000,0.00177937
178.00000000,0.00164006
179.00000000,0.00164773
180.00000000,0.00165858
181.00000000,0.00169505
182.00000000,0.00165778
183.00000000,0.00168685
184.00000000,0.00167179
185.00000000,0.00173443
186.00000000,0.00168765
187.00000000,0.00176616
188.00000000,0.00170880
189.00000000,0.00168158
190.00000000,0.00171674
191.00000000,0.00173710
192.00000000,0.00169296
193.00000000,0.00171146
194.00000000,0.00164537
195.00000000,0.00164985
196.00000000,0.00165989
197.00000000,0.00176615
198.00000000,0.00174316
199.00000000,0.00176352
200.00000000,0.00162472
201.00000000,0.00153088
202.00000000,0.00163215
203.00000000,0.00181903
204.00000000,0.00166386
205.00000000,0.00166043
206.00000000,0.00168502
207.00000000,0.00176088
208.00000000,0.00175904
209.00000000,0.00169823
210.00000000,0.00158191
211.00000000,0.00162340
212.00000000,0.00159776
213.00000000,0.00162683
214.00000000,0.00159249
215.00000000,0.00162342
216.00000000,0.00161100
217.00000000,0.00161549
218.00000000,0.00160572
219.00000000,0.00174503
220.00000000,0.00171674
221.00000000,0.00175030
222.00000000,0.00158191
223.00000000,0.00158904
224.00000000,0.00166440
225.00000000,0.00171593
226.00000000,0.00161098
227.00000000,0.00163398
228.00000000,0.00165329
229.00000000,0.00169742
230.00000000,0.00164007
231.00000000,0.00170800
232.00000000,0.00152375
233.00000000,0.00151290
234.00000000,0.00158904
235.00000000,0.00163742
236.00000000,0.00155547
237.00000000,0.00166570
238.00000000,0.00166650
239.00000000,0.00171064
240.00000000,0.00162684
241.00000000,0.00168685
242.00000000,0.00168237
243.00000000,0.00168951
244.00000000,0.00160042
245.00000000,0.00162922
246.00000000,0.00160041
247.00000000,0.00165513
248.00000000,0.00159776
249.00000000,0.00159168
250.00000000,0.00159513
251.00000000,0.00168951
252.00000000,0.00165594
253.00000000,0.00163715
254.00000000,0.00154013
255.00000000,0.00156524
256.00000000,0.00157397
257.00000000,0.00152083
258.00000000,0.00156075
259.00000000,0.00163928
260.00000000,0.00151847
261.00000000,0.00153670
262.00000000,0.00158456
263.00000000,0.00162606
264.00000000,0.00165594
265.00000000,0.00172915
266.00000000,0.00150789
267.00000000,0.00155204
268.00000000,0.00157661
269.00000000,0.00159961
270.00000000,0.00161627
271.00000000,0.00160490
272.00000000,0.00161496
273.00000000,0.00172122
274.00000000,0.00161364
275.00000000,0.00163664
276.00000000,0.00156606
277.00000000,0.00161549
278.00000000,0.00156869
279.00000000,0.00168156
280.00000000,0.00174581
281.00000000,0.00174237
282.00000000,0.00157134
283.00000000,0.00163452
284.00000000,0.00162235
285.00000000,0.00166887
286.00000000,0.00170088
287.00000000,0.00171066
288.00000000,0.00155813
289.00000000,0.00158376
290.00000000,0.00162950
291.00000000,0.00170272
292.00000000,0.00169558
293.00000000,0.00169743
294.00000000,0.00158455
295.00000000,0.00160754
296.00000000,0.00161364
297.00000000,0.00166836
298.00000000,0.00170880
299.00000000,0.00169479
300.00000000,0.00163743
301.00000000,0.00168686
302.00000000,0.00156868
303.00000000,0.00162895
304.00000000,0.00161892
305.00000000,0.00163953
306.00000000,0.00163743
307.00000000,0.00173179
308.00000000,0.00168765
309.00000000,0.00175823
310.00000000,0.00167707
311.00000000,0.00164455
312.00000000,0.00162950
313.00000000,0.00174342
314.00000000,0.00169557
315.00000000,0.00167892
316.00000000,0.00164536
317.00000000,0.00163927
318.00000000,0.00153962
319.00000000,0.00158640
320.00000000,0.00162422
321.00000000,0.00168950
322.00000000,0.00166650
323.00000000,0.00169478
324.00000000,0.00166386
325.00000000,0.00168156
326.00000000,0.00165064
327.00000000,0.00179577
328.00000000,0.00172228
329.00000000,0.00165010
330.00000000,0.00160596
331.00000000,0.00166306
332.00000000,0.00163743
333.00000000,0.00161284
334.00000000,0.00163213
335.00000000,0.00171857
336.00000000,0.00161892
337.00000000,0.00169743
338.00000000,0.00180661
339.00000000,0.00170536
340.00000000,0.00156078
341.00000000,0.00170271
342.00000000,0.00166728
343.00000000,0.00170799
344.00000000,0.00172466
345.00000000,0.00174501
346.00000000,0.00179604
347.00000000,0.00187984
348.00000000,0.00175903
349.00000000,0.00172015
350.00000000,0.00166386
351.00000000,0.00173180
352.00000000,0.00169559
353.00000000,0.00173708
354.00000000,0.00169822
355.00000000,0.00179049
356.00000000,0.00171648
357.00000000,0.00166042
358.00000000,0.00162395
359.00000000,0.00172968
360.00000000,0.00173259
361.00000000,0.00178467
362.00000000,0.00180397
363.00000000,0.00188777
364.00000000,0.00184099
365.00000000,0.00183489
366.00000000,0.00174052
367.00000000,0.00176617
368.00000000,0.00176697
369.00000000,0.00176088
370.00000000,0.00183835
371.00000000,0.00187721
372.00000000,0.00175904
373.00000000,0.00184284
374.00000000,0.00180134
375.00000000,0.00179525
376.00000000,0.00177754
377.00000000,0.00180053
378.00000000,0.00174051
379.00000000,0.00179788
380.00000000,0.00170880
381.00000000,0.00174501
382.00000000,0.00179076
383.00000000,0.00184018
384.00000000,0.00176696
385.00000000,0.00181902
386.00000000,0.00176985
387.00000000,0.00184651
388.00000000,0.00185684
389.00000000,0.00190098
390.00000000,0.00180662
391.00000000,0.00181373
392.00000000,0.00181717
393.00000000,0.00182563
394.00000000,0.00175110
395.00000000,0.00179524
396.00000000,0.00176960
397.00000000,0.00182961
398.00000000,0.00181191
399.00000000,0.00180847
400.00000000,0.00180664
401.00000000,0.00191422
402.00000000,0.00191499
403.00000000,0.00193006
404.00000000,0.00170353
405.00000000,0.00176882
406.00000000,0.00192823
407.00000000,0.00199352
408.00000000,0.00185395
409.00000000,0.00185869
410.00000000,0.00184098
411.00000000,0.00186925
412.00000000,0.00187536
413.00000000,0.00197898
414.00000000,0.00188329
415.00000000,0.00182697
416.00000000,0.00177490
417.00000000,0.00194461
418.00000000,0.00195465
419.00000000,0.00189306
420.00000000,0.00177225
421.00000000,0.00192214
422.00000000,0.00185949
423.00000000,0.00180053
424.00000000,0.00179075
425.00000000,0.00184017
426.00000000,0.00178282
427.00000000,0.00187455
428.00000000,0.00181718
429.00000000,0.00188776
430.00000000,0.00183042
431.00000000,0.00188012
432.00000000,0.00186479
433.00000000,0.00190892
434.00000000,0.00183568
435.00000000,0.00190627
436.00000000,0.00193615
437.00000000,0.00194064
438.00000000,0.00181455
439.00000000,0.00184019
440.00000000,0.00179605
441.00000000,0.00186397
442.00000000,0.00179603
443.00000000,0.00177937
444.00000000,0.00175110
445.00000000,0.00182829
446.00000000,0.00182775
447.00000000,0.00189041
448.00000000,0.00181190
449.00000000,0.00181136
450.00000000,0.00175375
451.00000000,0.00186661
452.00000000,0.00184098
453.00000000,0.00180846
454.00000000,0.00178018
455.00000000,0.00188775
456.00000000,0.00179603
457.00000000,0.00178730
458.00000000,0.00171937
459.00000000,0.00178465
460.00000000,0.00171541
461.00000000,0.00176882
462.00000000,0.00175640
463.00000000,0.00180317
464.00000000,0.00175639
465.00000000,0.00187720
466.00000000,0.00185977
467.00000000,0.00176670
468.00000000,0.00174343
469.00000000,0.00176218
470.00000000,0.00174422
471.00000000,0.00176617
472.00000000,0.00175638
473.00000000,0.00175294
474.00000000,0.00161628
475.00000000,0.00167894
476.00000000,0.00162422
477.00000000,0.00165803
478.00000000,0.00161706
479.00000000,0.00167284
480.00000000,0.00168685
481.00000000,0.00175292
482.00000000,0.00165064
483.00000000,0.00167365
484.00000000,0.00166519
485.00000000,0.00168500
486.00000000,0.00168766
487.00000000,0.00170008
488.00000000,0.00163214
489.00000000,0.00164719
490.00000000,0.00153696
491.00000000,0.00163399
492.00000000,0.00165858
493.00000000,0.00170007
494.00000000,0.00173788
495.00000000,0.00171330
496.00000000,0.00164536
497.00000000,0.00167101
498.00000000,0.00153434
499.00000000,0.00161046
500.00000000,0.00165912
501.00000000,0.00171593
502.00000000,0.00157396
503.00000000,0.00152559
504.00000000,0.00159247
505.00000000,0.00156577
506.00000000,0.00148410
507.00000000,0.00166306
508.00000000,0.00170089
509.00000000,0.00168157
510.00000000,0.00163742
511.00000000,0.00160226
512.00000000,0.00160306
513.00000000,0.00169743
514.00000000,0.00158191
515.00000000,0.00163769
516.00000000,0.00159778
517.00000000,0.00158111
518.00000000,0.00155812
519.00000000,0.00161548
520.00000000,0.00162156
521.00000000,0.00160753
522.00000000,0.00158191
523.00000000,0.00163213
524.00000000,0.00159514
525.00000000,0.00161548
526.00000000,0.00150525
527.00000000,0.00154674
528.00000000,0.00161364
529.00000000,0.00171329
530.00000000,0.00161099
531.00000000,0.00154409
532.00000000,0.00150525
533.00000000,0.00159698
534.00000000,0.00155020
535.00000000,0.00159170
536.00000000,0.00151873
537.00000000,0.00160489
538.00000000,0.00163820
539.00000000,0.00166570
540.00000000,0.00163479
541.00000000,0.00171065
542.00000000,0.00167708
543.00000000,0.00167891
544.00000000,0.00166385
545.00000000,0.00167601
546.00000000,0.00160016
547.00000000,0.00167099
548.00000000,0.00164799
549.00000000,0.00167893
550.00000000,0.00161100
551.00000000,0.00167364
552.00000000,0.00172730
553.00000000,0.00179259
554.00000000,0.00174052
555.00000000,0.00173181
556.00000000,0.00165594
557.00000000,0.00169214
558.00000000,0.00166917
559.00000000,0.00181905
560.00000000,0.00180133
561.00000000,0.00181111
562.00000000,0.00172731
563.00000000,0.00183490
564.00000000,0.00187536
565.00000000,0.00185075
566.00000000,0.00170616
567.00000000,0.00175559
568.00000000,0.00182777
569.00000000,0.00186133
570.00000000,0.00177199
571.00000000,0.00175611
572.00000000,0.00172466
573.00000000,0.00183489
574.00000000,0.00178019
575.00000000,0.00178467
576.00000000,0.00179075
577.00000000,0.00180581
578.00000000,0.00180131
579.00000000,0.00192741
580.00000000,0.00183041
581.00000000,0.00179258
582.00000000,0.00178043
583.00000000,0.00190890
584.00000000,0.00193615
585.00000000,0.00195650
586.00000000,0.00195201
587.00000000,0.00198557
588.00000000,0.00193615
589.00000000,0.00199616
590.00000000,0.00193616
591.00000000,0.00194884
592.00000000,0.00202710
593.00000000,0.00215477
594.00000000,0.00205512
595.00000000,0.00199616
596.00000000,0.00199167
597.00000000,0.00211511
598.00000000,0.00209475
599.00000000,0.00209923
600.00000000,0.00201544
601.00000000,0.00219970
602.00000000,0.00214764
603.00000000,0.00205696
604.00000000,0.00203924
605.00000000,0.00217855
606.00000000,0.00225602
607.00000000,0.00225257
608.00000000,0.00212649
609.00000000,0.00218914
610.00000000,0.00221638
611.00000000,0.00230809
612.00000000,0.00229039
613.00000000,0.00228166
614.00000000,0.00226660
615.00000000,0.00238740
616.00000000,0.00231947
617.00000000,0.00221823
618.00000000,0.00225075
619.00000000,0.00236098
620.00000000,0.00225605
621.00000000,0.00229225
622.00000000,0.00221400
623.00000000,0.00235833
624.00000000,0.00241200
625.00000000,0.00242970
626.00000000,0.00228775
627.00000000,0.00232133
628.00000000,0.00233535
629.00000000,0.00230282
630.00000000,0.00231155
631.00000000,0.00240591
632.00000000,0.00235120
633.00000000,0.00246143
634.00000000,0.00249660
635.00000000,0.00250639
636.00000000,0.00237500
637.00000000,0.00239006
638.00000000,0.00238557
639.00000000,0.00244556
640.00000000,0.00245958
641.00000000,0.00260682
642.00000000,0.00258913
643.00000000,0.00253545
644.00000000,0.00253097
645.00000000,0.00259625
646.00000000,0.00248604
647.00000000,0.00252753
648.00000000,0.00247809
649.00000000,0.00248785
650.00000000,0.00245957
651.00000000,0.00246670
652.00000000,0.00235648
653.00000000,0.00242970
654.00000000,0.00243579
655.00000000,0.00254865
656.00000000,0.00256798
657.00000000,0.00251695
658.00000000,0.00248074
659.00000000,0.00253545
660.00000000,0.00251775
661.00000000,0.00263063
662.00000000,0.00253097
663.00000000,0.00254338
664.00000000,0.00251246
665.00000000,0.00255130
666.00000000,0.00248866
667.00000000,0.00244028
668.00000000,0.00245167
669.00000000,0.00255926
670.00000000,0.00258650
671.00000000,0.00260949
672.00000000,0.00257327
673.00000000,0.00263061
674.00000000,0.00258119
675.00000000,0.00254866
676.00000000,0.00249661
677.00000000,0.00251693
678.00000000,0.00246221
679.00000000,0.00250371
680.00000000,0.00240936
681.00000000,0.00246143
682.00000000,0.00243579
683.00000000,0.00251693
684.00000000,0.00253361
685.00000000,0.00254073
686.00000000,0.00245958
687.00000000,0.00245350
688.00000000,0.00239085
689.00000000,0.00239799
690.00000000,0.00236443
691.00000000,0.00242707
692.00000000,0.00240936
693.00000000,0.00242442
694.00000000,0.00239615
695.00000000,0.00231867
696.00000000,0.00223752
697.00000000,0.00229752
698.00000000,0.00219259
699.00000000,0.00228432
700.00000000,0.00237501
701.00000000,0.00240593
702.00000000,0.00222694
703.00000000,0.00225257
704.00000000,0.00225867
705.00000000,0.00232661
706.00000000,0.00220843
707.00000000,0.00217062
708.00000000,0.00214023
709.00000000,0.00221557
710.00000000,0.00224017
711.00000000,0.00220500
712.00000000,0.00210800
713.00000000,0.00218915
714.00000000,0.00207628
715.00000000,0.00215742
716.00000000,0.00212913
717.00000000,0.00217328
718.00000000,0.00212649
719.00000000,0.00214948
720.00000000,0.00206039
721.00000000,0.00205960
722.00000000,0.00198375
723.00000000,0.00203316
724.00000000,0.00199960
725.00000000,0.00196973
726.00000000,0.00189915
727.00000000,0.00195650
728.00000000,0.00191765
729.00000000,0.00184811
730.00000000,0.00174582
731.00000000,0.00190099
732.00000000,0.00191764
733.00000000,0.00184547
734.00000000,0.00179076
735.00000000,0.00178203
736.00000000,0.00168898
737.00000000,0.00182537
738.00000000,0.00180397
739.00000000,0.00177674
740.00000000,0.00169558
741.00000000,0.00171330
742.00000000,0.00164800
743.00000000,0.00172122
744.00000000,0.00174846
745.00000000,0.00173180
746.00000000,0.00162156
747.00000000,0.00166042
748.00000000,0.00165064
749.00000000,0.00167099
750.00000000,0.00160360
751.00000000,0.00159222
752.00000000,0.00157927
753.00000000,0.00167100
754.00000000,0.00158985
755.00000000,0.00157900
756.00000000,0.00163028
757.00000000,0.00161811
758.00000000,0.00151608
759.00000000,0.00155599
760.00000000,0.00155680
761.00000000,0.00162870
762.00000000,0.00159248
763.00000000,0.00159961
764.00000000,0.00153696
765.00000000,0.00159697
766.00000000,0.00158640
767.00000000,0.00157186
768.00000000,0.00154754
769.00000000,0.00161019
770.00000000,0.00159248
771.00000000,0.00166042
772.00000000,0.00160041
773.00000000,0.00158111
774.00000000,0.00152640
775.00000000,0.00159697
776.00000000,0.00160305
777.00000000,0.00166833
778.00000000,0.00166173
779.00000000,0.00161416
780.00000000,0.00151847
781.00000000,0.00157953
782.00000000,0.00154226
783.00000000,0.00156605
784.00000000,0.00161628
785.00000000,0.00170802
786.00000000,0.00158747
787.00000000,0.00170061
788.00000000,0.00172731
789.00000000,0.00172387
790.00000000,0.00170353
791.00000000,0.00174501
792.00000000,0.00176616
793.00000000,0.00183490
794.00000000,0.00172732
795.00000000,0.00179525
796.00000000,0.00179870
797.00000000,0.00189834
798.00000000,0.00192293
799.00000000,0.00194328
800.00000000,0.00195203
801.00000000,0.00196179
802.00000000,0.00194118
803.00000000,0.00205088
